NAME:,matan w 1,,
EXPERIMENT TIME:,Thu Jun 01 11:56:25 GMT+03:00 2023,,
ACTIVITY TYPE:,Walking,,
COUNTS OF ACTUAL STEPS:,102,,
  , ,,
Time [sec],ACC X,ACC Y,ACC Z
0,9.89,-3.41,-2.79
0.075497472,9.45,-3.14,-2.82
0.159383552,8.04,-3.14,-2.08
0.234881024,7.41,-2.16,-1.37
0.327155712,8.75,-1.88,-0.98
0.4194304,11.41,-2.04,-0.71
0.478150656,15.38,-6.9,-4.31
0.612368384,4.35,-2,-3.69
0.679477248,10.2,-2.71,-4.71
0.738197504,9.61,-3.8,-3.57
1.249902592,8.43,-2.04,-3.45
1.753219072,8.39,-1.69,-2.51
1.769996288,7.53,-0.59,-1.33
1.786773504,17.53,-3.61,-8.39
1.795162112,7.18,-0.51,-4.08
1.870659584,4.35,-1.57,-3.69
1.962934272,7.45,-1.33,-3.18
2.01326592,12.24,-4.9,-4.35
2.113929216,9.49,-1.33,-2.79
2.189426688,7.61,-0.98,-1.53
2.281701376,6.32,-1.77,0.27
2.34881024,13.02,-3.3,-0.51
2.43269632,14.83,-2,-2.98
2.541748224,5.77,-2,-3.26
2.60046848,8.59,-1.96,-3.3
2.667577344,11.77,-1.41,-3.77
2.81018368,8.55,-2.51,-2.79
2.843738112,6.9,-3.02,-1.22
2.927624192,8.71,-3.02,-1.57
3.011510272,14.24,-4.2,-1.45
3.078619136,13.85,-7.41,-4.39
3.162505216,5.88,0.51,-2.9
3.246391296,9.02,-4.63,-1.77
3.338665984,8.12,-2.86,-3.33
3.422552064,11.85,-1.65,-2.04
3.506438144,7.85,-0.9,-1.33
3.573547008,7.85,-0.71,-2.39
3.640655872,13.93,-2.39,-1.84
3.7748736,12.04,0.04,-4.9
3.81681664,3.18,-2.04,-3.22
3.909091328,9.57,0.12,-4.71
3.959422976,9.22,-2.31,-3.1
4.060086272,8.24,-2.63,-2.82
4.143972352,6.47,-2.43,-1.1
4.211081216,9.45,-4.24,-2.75
4.303355904,11.89,-4.24,-0.31
4.378853376,11.1,-9.57,-7.57
4.454350848,6.32,0.47,-3.18
4.588568576,8,-7.45,-3.53
4.65567744,7.65,0.04,-2.67
4.714397696,8.67,-0.75,-2.2
4.78150656,6.86,-1.8,-0.82
4.882169856,11.02,-1.84,-4.08
4.932501504,16.32,-4.24,-6.98
5.0331648,8.12,0.24,-3.73
5.108662272,7.26,-2.43,-4.59
5.20093696,13.57,-2.59,-4.04
5.259657216,5.81,-1.29,-3.18
5.351931904,7.53,-3.22,-2.12
5.486149632,8.39,-2.94,-1.37
5.544869888,11.85,-2.82,-1.37
5.611978752,12.94,-4.86,-5.65
5.687476224,6.86,-1.53,-4.63
5.754585088,8.83,-1.02,-2.28
5.846859776,7.61,-4.47,-2.9
5.930745856,8.04,-1.84,-3.22
6.014631936,9.41,-0.59,-1.53
6.073352192,7.26,-1.33,-1.37
6.174015488,13.96,-2.28,1.8
6.257901568,13.77,-3.88,-3.37
6.308233216,6.12,-2.31,-4
6.408896512,9.34,-1.65,-2.43
6.484393984,9.49,-1.65,-2.86
6.618611712,5.37,-2.24,-3.69
6.66894336,9.02,-4.43,-1.26
6.736052224,8.51,-2.79,-1.57
7.239368704,10.63,-2.51,-0.2
7.7594624,13.53,-3.84,-6.67
7.767851008,2.98,-1.73,-3.84
7.776239616,12.98,-2.35,-4.98
7.793016832,8.63,-3.26,-2.9
7.793016832,7.65,-0.71,-2.59
7.80140544,11.34,-0.98,-3.53
7.851737088,7.57,-2.86,-2.82
7.944011776,6.83,-3.45,-1.22
8.036286464,8.98,-1.84,-1.49
8.09500672,12.91,-4.55,-0.82
8.1788928,14.2,-7.45,-5.49
8.254390272,3.92,1.06,-0.86
8.396996608,13.26,-6.94,-4.79
8.455716864,8.16,-2.24,-2.75
8.531214336,8.55,-0.63,-2.94
8.5983232,6.35,-0.94,-1.06
8.665432064,8.71,-1.26,-1.49
8.76609536,16.95,-4.51,-6.39
8.816427008,10.24,0.75,-4.71
8.908701696,4.08,-2.16,-4.63
9.000976384,12.12,-0.94,-4.2
9.076473856,6.28,-1.61,-3.65
9.151971328,7.73,-3.06,-2.35
9.244246016,7.49,-2.31,-0.82
9.31135488,8.59,-2.94,-2.35
9.437184,12.98,-1.65,-2.31
9.512681472,7.53,-4.24,-4.08
9.554624512,5.61,0.43,-3.02
9.638510592,10.55,-6,-3.41
9.73078528,8.47,-1.69,-3.18
9.797894144,7.81,-0.55,-1.84
9.890168832,6.59,-1.41,-0.12
9.965666304,12.32,-0.94,-2.82
10.04116378,13.77,-6.28,-7.18
10.12504986,9.69,1.02,-5.02
10.20054733,4.39,-2.16,-3.41
10.33476506,12.67,-1.53,-3.61
10.40187392,6.67,-3.18,-2.94
10.46898278,7.65,-2.75,-2.08
10.53609165,7.57,-2.35,-0.86
10.62836634,9.34,-2,-1.88
10.6954752,12.28,-3.3,-2.79
10.77936128,6.71,-4.94,-4.63
10.85485875,7.73,0.31,-4.9
10.94713344,10,-3.92,-3.49
11.03101952,7.65,-2.86,-3.53
11.15684864,8.04,-1.22,-2.43
11.2155689,6.79,-0.59,-1.14
11.29106637,10.63,-1.61,-4.82
11.34978662,13.53,-4.86,-5.69
11.41689549,3.41,4.39,-5.18
11.49239296,3.8,-3.33,-3.77
11.58466765,10.94,-0.31,-4.79
11.67694234,8,-1.73,-3.02
11.76082842,7.49,-3.3,-2.71
11.8447145,6.67,-2.71,-1.1
11.91182336,9.3,-2.67,-1.88
11.99570944,14.2,-3.33,-3.14
12.10476134,6.32,-4.79,-5.81
12.1634816,7.88,-0.04,-4.51
12.23059046,9.49,-5.49,-2.98
12.36480819,7.73,-2.67,-2.94
12.43191706,8.63,-0.82,-2.75
12.49063731,6.83,-1.14,-1.14
12.56613478,11.89,-2.63,-3.22
12.62485504,16.28,-3.22,-3.02
12.71712973,6.24,0.08,-4.86
13.22044621,6.94,-3.18,-3.65
13.74892851,13.81,-2.16,-4.04
13.74892851,8.87,-0.86,-2.94
13.75731712,7.06,-3.65,-1.49
13.76570573,7.41,-2.86,-0.71
13.78248294,7.18,-0.78,-2.39
13.86636902,14.44,-1.06,0.16
13.91670067,13.53,-1.18,-4.47
14.03414118,2.94,-1.18,-4.67
14.10125005,9.69,-1.02,-4.63
14.22707917,10.79,-1.41,-4.12
14.29418803,8.36,-2.08,-2.71
14.34451968,6.71,-2.86,-1.14
14.42840576,8.2,-2.39,-1.37
14.49551462,14.55,-5.88,-1.96
14.5794007,14.63,-7.34,-4.82
14.66328678,3.1,0.31,-2.86
14.75556147,13.69,-6.55,-4.71
14.83105894,9.45,-3.14,-2.75
14.91494502,8.04,-0.98,-3.02
14.9904425,6.71,-0.59,-1.65
15.13304883,9.69,-0.86,-2.82
15.2001577,12.91,-2,-0.51
15.26726656,16.51,-3.45,-2.2
15.3092096,3.57,-2.55,-4.12
15.38470707,8.87,0.55,-4.71
15.48537037,9.3,-1.8,-3.3
15.56086784,7.61,-3.18,-2.98
15.64475392,6.32,-2.67,-0.86
15.72025139,8.94,-3.18,-2.43
15.80413747,13.22,-2.2,-2.67
15.92996659,10.67,-6.47,-4.9
15.99707546,4.98,1.84,-3.69
16.06418432,12.71,-6.71,-5.14
16.13968179,8.59,-2.67,-2.79
16.20679066,8.28,-0.94,-2.47
16.29906534,5.88,-1.18,-1.06
16.3577856,10.12,-1.45,-4.43
16.4584489,13.85,-4.28,-5.18
16.52555776,10.51,-1.61,-3.37
16.60944384,1.73,-1.61,-5.77
16.70171853,12.08,-0.51,-3.3
16.76043878,7.92,-1.29,-4.16
16.8862679,7.85,-3.33,-2.79
16.95337677,7.49,-2.63,-1.29
17.02048563,8.79,-2.63,-2
17.0875945,14.95,-4.39,-2.04
17.18825779,13.22,-6.08,-4.79
17.25536666,4.39,1.61,-4.71
17.33925274,12.04,-4.51,-4.86
17.43152742,8.28,-3.49,-2.63
17.49863629,7.92,-1.61,-2.28
17.58252237,7.53,0.51,-1.1
17.67479706,9.02,-1.69,-2.47
17.73351731,11.3,-3.3,-1.96
17.85095782,11.49,1.45,-4.28
17.91806669,2.12,-1.1,-5.02
17.98517555,11.73,-2,-4.55
18.05228442,8.83,-0.94,-4.08
18.1445591,8.12,-2.71,-2.94
18.22844518,6.98,-2.82,-1.49
18.31233126,8.98,-2.28,-1.14
18.37944013,12.63,-2.08,-0.71
18.46332621,14.71,-7.22,-4.28
18.54721229,2.59,-0.71,-5.22
18.64787558,10.94,-5.02,-5.06
18.71498445,10.2,-3.77,-3.53
19.20152371,7.14,-0.9,-2.86
19.70484019,8,-0.63,-2.04
19.73000602,8.51,-1.06,-1.84
19.73839462,16.63,-2.55,-4.43
19.75517184,15.1,-4.16,-5.37
19.83905792,5.18,-1.8,-4.39
19.922944,10.12,-2.31,-4.2
20.0319959,9.49,-4.31,-1.8
20.09071616,7.88,-1.18,-3.49
20.17460224,8.28,-1.06,-1.65
20.25848832,7.1,-1.06,-0.55
20.31720858,12.79,-1.96,-2.12
20.40109466,16.36,-2.24,-7.02
20.49336934,7.69,0.71,-5.49
20.57725542,7.92,-3.06,-5.33
20.70308454,12.83,-0.78,-4.12
20.77019341,6.63,-1.88,-3.14
20.83730227,6.32,-3.84,-1.57
20.90441114,8.75,-2.86,-1.49
20.97152,13.57,-2.43,-1.37
21.0721833,15.22,-5.96,-4.28
21.13929216,4.63,-0.04,-3.77
21.22317824,6.79,-1.61,-3.77
21.31545293,10.98,-5.53,-2.67
21.3909504,8.47,-1.49,-3.06
21.45805926,7.69,-0.9,-1.61
21.54194534,6.83,-2.2,-0.78
21.62583142,13.14,-2.75,0.27
21.7097175,16.08,-2.51,-4.43
21.78521498,4.79,0.12,-3.69
21.9194327,8.94,-4.12,-3.61
21.96976435,11.85,-1.29,-4.31
22.04526182,8.51,-2.35,-2.43
22.1291479,6.9,-2,-0.98
22.18786816,7.96,-2.51,-0.94
22.27175424,13.02,-1.61,-1.33
22.35564032,14.71,-4.9,-3.84
22.44791501,3.69,-2.98,-4.9
22.52341248,9.69,-0.82,-5.06
22.61568717,10.79,-4.2,-2.28
22.68279603,7.37,-2.04,-3.45
22.7499049,7.85,-0.9,-2.12
22.88412262,7.73,-1.41,-1.22
22.92606566,12.28,-2.55,-3.65
23.00156314,14.98,-3.53,-5.45
23.08544922,7.81,-0.04,-4.24
23.1777239,6.43,-1.92,-3.37
23.26160998,11.81,-2.24,-4.12
23.33710746,9.14,-1.14,-2.67
23.40421632,7.53,-2.67,-1.88
23.4881024,8.08,-2.9,-0.2
23.58037709,9.1,-2.39,-1.06
23.65587456,14.63,-6.55,-4.12
23.72298342,3.92,-4.39,-4.08
23.85720115,8.71,1.06,-4.9
23.89914419,10.51,-3.8,-3.22
23.99141888,9.53,-2.39,-3.3
24.05013914,7.49,-0.51,-2
24.13402522,7.18,-0.94,-0.75
24.2179113,12.04,-1.77,-3.96
24.30179738,13.65,-5.96,-4.43
24.39407206,10,1.18,-4.63
24.47795814,5.69,-2.55,-4.12
24.54506701,12.43,-1.02,-4.16
24.61217587,7.3,-1.61,-2.43
24.71283917,7.1,-3.02,-2.04
25.19098982,7.88,-2.79,-0.59
25.6943063,9.96,-1.41,-1.02
25.73624934,14.28,-2.35,-4.04
25.74463795,5.18,-2.75,-4.35
25.74463795,6.39,-0.2,-4.16
25.76141517,6.86,-2.2,-2.94
25.83691264,11.89,-1.22,-5.61
25.92918733,9.53,-2.55,-2.75
25.99629619,6.79,-2.35,-1.41
26.08857088,8,-2.2,-1.14
26.17245696,13.61,-2.39,-1.69
26.23956582,14.32,-4.55,-4.59
26.3234519,4.9,-0.75,-3.61
26.39894938,6.24,-1.53,-3.96
26.54155571,13.38,-6.51,-4.75
26.60027597,9.18,-1.92,-4.24
26.67577344,7.45,-1.06,-2.12
26.71771648,6.83,-1.1,-0.51
26.80999117,11.77,-2.04,-2.24
26.89387725,18.16,-4.47,-5.92
26.97776333,6.63,-0.2,-4.28
27.07003802,8.04,-2.79,-2.9
27.1539241,12.4,-1.14,-4.08
27.20425574,8.43,-2.31,-2.08
27.29653043,7.3,-2.28,-1.14
27.42235955,8,-3.22,-1.33
27.48946842,17.26,-5.88,-2.71
27.55657728,13.89,-6.9,-4.86
27.62368614,3.96,1.26,-2.67
27.69079501,12.71,-4.79,-4.24
27.79984691,8.43,-3.41,-2.51
27.85856717,8.79,-1.69,-3.14
27.94245325,7.22,-0.82,-1.8
28.02633933,8.24,-1.22,-2.79
28.11022541,14,-1.06,0.47
28.2025001,12.04,-1.41,-2.71
28.27799757,5.3,-3.49,-4.82
28.37866086,8.59,-1.37,-2.94
28.44576973,8.04,-0.39,-4.08
28.51287859,8.98,-3.18,-2.16
28.6219305,8,-3.1,-1.53
28.68065075,7.96,-2.2,-1.65
28.74775962,15.57,-4.47,-3.53
28.8316457,10.4,-5.57,-3.3
28.92392038,4.12,1.1,-3.45
28.99102925,12.98,-5.41,-4.94
29.09169254,9.26,-2.94,-2.79
29.1504128,7.61,-1.33,-2.24
29.23429888,6.59,-0.86,-0.71
29.33496218,11.22,-1.88,-3.65
29.40207104,15.18,-6.39,-5.88
29.53628877,8.67,0.82,-3.65
29.5698432,6.04,-1.33,-3.61
29.64534067,12.28,-3.06,-3.69
29.72922675,6.39,-0.75,-3.77
29.80472422,8.79,-3.37,-2.28
29.89699891,7.49,-2.67,-0.9
29.98088499,8.28,-1.92,-2.2
30.06477107,13.26,-2.71,-4.63
30.13187994,4.9,-3.22,-4.67
30.21576602,10.4,-0.67,-4.98
30.29126349,9.3,-4.24,-2.39
30.43386982,7.77,-2.12,-3.77
30.49259008,7.73,-0.24,-2.28
30.56808755,7.57,-1.65,-1.29
30.62680781,12.83,-2.31,-2.47
30.71069389,15.38,-3.18,-4.39
31.17206733,7.85,-0.43,-4.67
31.19723315,7.41,-1.96,-3.37
31.20562176,11.57,-1.77,-4.55
31.23078758,8.79,-1.84,-3.18
31.23078758,7.81,-3.41,-1.92
31.26434202,12.28,-1.84,-1.84
31.39855974,14.28,-5.14,-4.39
31.46566861,3.33,-0.47,-3.33
31.49922304,11.1,-2.31,-4.75
31.59988634,9.38,-4.39,-1.92
31.6669952,8.63,-1.14,-3.69
31.75088128,7.45,-0.9,-1.84
31.83476736,7.26,-1.53,-1.41
31.91865344,14.36,-1.77,-0.39
32.00253952,16.2,-3.77,-4.86
32.06125978,6.63,0.04,-4.55
32.15353446,9.1,-2.55,-3.22
32.28775219,8.9,-0.71,-4.75
32.35486106,10.59,-2.47,-3.49
32.42196992,7.22,-3.8,-1.29
32.48907878,8.28,-1.65,-1.22
32.57296486,10.98,-1.8,-1.45
32.63168512,14.44,-5.92,-4.47
32.72395981,4.9,-0.31,-3.3
32.80784589,7.77,-1.65,-4.39
32.88334336,10.08,-4.2,-3.37
32.95884083,8.79,-1.88,-4.2
33.04272691,8.04,-1.33,-1.84
33.16855603,5.96,-2.04,-1.41
33.2356649,12.91,-1.57,-3.22
33.30277376,17.81,-2.12,-6.9
33.36988262,7.73,-0.31,-4.39
33.4537687,7.18,-3.14,-2.9
33.52087757,12.4,-1.06,-5.73
33.60476365,8.08,-2.51,-2.47
33.69703834,7.92,-2.63,-2.08
33.78092442,7.65,-2.79,-0.86
33.8648105,10.43,-1.92,-0.86
33.94869658,13.73,-4.31,-4.08
34.00741683,3.65,-1.8,-3.18
34.10808013,10.98,-1.49,-3.96
34.17518899,10.12,-4.31,-2.08
34.30940672,7.96,-2.24,-3.37
34.38490419,7.3,-0.71,-1.84
34.42684723,7.96,-1.8,-2.39
34.5023447,14.4,-1.02,-2.75
34.58623078,11.14,-0.59,-3.14
34.67011686,3.73,-2.16,-4.86
34.75400294,10.75,-2.47,-3.37
34.84627763,7.37,-0.55,-3.8
34.90499789,7.77,-2.98,-2.31
34.98888397,7.37,-3.65,-0.55
35.08954726,6.94,-3.22,-2.9
35.15665613,14.32,-2.86,-4.24
35.22376499,4.79,-4.12,-3.45
35.32442829,8.94,0.43,-4.51
35.39153715,10.32,-3.45,-2.86
35.47542323,8.43,-1.84,-3.45
35.55930931,7.85,-0.24,-1.57
35.64319539,6.9,-2.12,-0.47
35.72708147,13.69,-1.61,0.16
35.80257894,16.28,-3.3,-3.84
35.89485363,5.65,-0.2,-4.28
35.9703511,7.85,-2.55,-2.75
36.04584858,12.43,-1.77,-4.2
36.11295744,8.51,-1.88,-2.16
38.65470566,7.14,-3.3,-1.26
39.15802214,7.77,-2.71,-1.06
39.15802214,13.02,-2.63,-1.29
39.65295002,14.08,-6,-3.77
40.1562665,3.88,0.12,-1.77
40.18982093,10.04,-2.75,-5.41
40.19820954,9.85,-1.73,-2.9
40.20659814,9.06,-2.47,-3.18
40.22337536,7.73,-2.28,-2.2
40.24015258,10.2,-6.79,-3.53
40.31565005,5.57,1.26,-4.12
40.40792474,11.65,-4.51,-5.18
40.46664499,8.87,-2.35,-3.22
40.55891968,8.43,-1.37,-2.12
40.64280576,6.86,-1.53,-0.39
40.72669184,11.77,-1.53,-5.02
40.82735514,13.69,-5.88,-4.2
40.894464,11.02,-0.59,-2.9
40.96157286,4.2,-2.35,-4.16
41.03707034,10.79,-1.88,-2.47
41.12934502,7.45,-0.94,-4.9
41.19645389,8.9,-4.75,-1.88
41.28872858,7.1,-2.31,-1.29
41.37261466,9.73,-1.45,-1.84
41.43972352,16.63,-4.9,-4.2
41.5236096,10.4,-5.96,-3.77
41.60749568,4.94,0.59,-4.12
41.69977037,11.02,-3.92,-4.2
41.76687923,8.9,-3.96,-3.41
41.90948557,8.79,-1.45,-2.35
41.96820582,6.32,-0.78,-1.33
42.01853747,10.75,-1.26,-3.92
42.09403494,17.93,-6.67,-5.65
42.17792102,10.36,0.08,-4.47
42.2618071,5.18,-3.22,-4.2
42.34569318,10.32,-2.98,-3.02
42.42119066,7.65,-1.41,-2.79
42.50507674,7.73,-3.41,-1.53
42.58057421,6.51,-1.49,-2.51
42.64768307,11.77,-1.84,-1.69
42.79028941,15.85,-6,-4.08
42.85739827,8.98,-5.33,-2.79
42.92450714,4.86,0.63,-4.08
42.991616,13.53,-4.75,-5.37
43.06711347,8.36,-3.1,-3.53
43.15938816,8.28,-1.33,-2.75
43.23488563,6.79,-0.75,-1.45
43.32716032,10.32,-1.57,-3.45
43.39426918,11.1,-2.39,0.35
43.47815526,12.63,0.04,-2.51
43.57042995,6.75,-1.06,-4.94
43.62915021,7.41,-1.88,-3.41
43.70464768,12.16,-1.1,-4.59
43.83886541,8.28,-2.75,-2.35
43.90597427,7.53,-2.82,-1.37
43.96469453,8.47,-2.63,-0.31
44.05696922,16.51,-3.3,-2.12
44.11568947,14.79,-5.65,-4.55
44.19957555,2.79,-0.59,-3.3
44.28346163,13.06,-3.69,-4.51
44.36734771,8.9,-4.16,-2.24
44.45123379,7.77,-1.41,-2.71
44.51834266,7.14,-1.1,-2.08
44.64417178,9.3,-1.14,-2.04
44.71128064,12.04,-2.86,-0.75
44.7783895,14.04,-0.08,-2.71
44.84549837,6.08,-1.84,-4.47
44.92938445,7.92,-2.24,-3.33
45.02165914,10.83,-1.77,-2.67
45.088768,7.45,-2.71,-2.47
45.18104269,8.71,-2.71,-2.47
45.64241613,8.67,-3.69,-1.41
46.14573261,13.49,-3.57,-3.26
46.17089843,9.96,-6.39,-4.51
46.17928704,6.2,1.18,-2.28
46.18767565,10.32,-4.51,-4
46.22123008,11.92,-2.55,-3.92
46.30511616,6.71,-0.86,-2.94
46.38900224,7.3,-3.06,-2.59
46.48127693,7.34,-2.39,-0.86
46.5567744,9.22,-4.08,-3.06
46.62388326,13.45,-2.59,-3.3
46.74971238,7.37,-4.39,-4.2
46.80004403,7.37,-0.2,-4.9
46.8755415,10.98,-5.14,-3.06
46.95942758,8.08,-1.49,-2.71
47.04331366,9.1,-1.22,-1.65
47.12719974,7.41,-2.39,-1.41
47.18592,11.22,-2.2,-3.8
47.26980608,14.32,-4.86,-4.67
47.36208077,9.61,0.78,-5.02
47.44596685,7.73,-2.28,-4.16
47.52146432,10.47,-1.41,-2.55
47.65568205,8.2,-3.77,-2.12
47.7144023,9.45,-3.73,-2.12
47.77312256,7.3,-2.47,-1.26
47.84862003,9.85,-4.51,-2.12
47.9157289,9.92,-3.45,0.82
47.99961498,12.94,-7.26,-5.26
48.08350106,5.37,0.67,-2.31
48.18416435,9.53,-5.18,-2.71
48.25127322,7.22,-2.2,-1.96
48.32677069,6,-0.86,-2.67
48.41065677,9.85,-0.94,-0.71
48.48615424,9.26,-1.69,-3.22
48.62876058,12.36,-1.77,-0.12
48.67909222,12.28,0.9,-3.8
48.73781248,5.06,-2.47,-4.86
48.82169856,8.32,-1.65,-3.1
48.88880742,8.75,-0.71,-3.92
48.9726935,9.26,-3.73,-2.55
49.06496819,7.45,-3.06,-1.26
49.14046566,8.75,-2.94,-2.39
49.22435174,12.04,-3.53,-2.24
49.31662643,11.49,-8.83,-6.2
49.37534669,6.9,1.37,-3.88
49.51795302,9.18,-4.16,-3.3
49.58506189,8.55,-2.71,-2.55
49.65217075,7.69,-1.06,-2.55
49.7025024,6.9,-1.96,-2
49.77799987,10.36,-2.2,-4.16
49.87027456,13.34,-1.33,-3.73
49.95416064,11.41,0.08,-4.47
50.03804672,4.35,-2,-3.8
50.13032141,8.67,-0.47,-4.75
50.19743027,10,-1.61,-4
50.29809357,7.53,-2.71,-2.82
50.39875686,6.47,-2.9,-1.49
50.45747712,8.98,-3.02,-2.67
50.52458598,13.57,-4.67,-1.37
50.60008346,13.14,-8.55,-6.67
50.68396954,6.04,0.9,-4
50.76785562,9.69,-3.84,-3.41
50.82657587,8.55,-2.2,-1.57
50.91885056,8.2,-1.26,-2.39
50.99434803,6.9,-2.04,-1.88
51.08662272,10.47,-0.86,-4.16
51.62349363,15.53,-3.69,-5.92
51.64027085,10.16,-0.98,-3.96
52.12681011,5.65,-2.24,-4.28
52.62173798,11.77,-2.35,-2.31
52.6385152,6.94,-1.88,-2.08
53.12505446,7.18,-2.71,-1.29
53.14183168,11.38,-1.57,-5.45
53.61998234,9.61,-3.22,-2.47
53.62837094,7.26,-2.94,-1.77
54.12329882,7.88,-2.24,-0.75
54.61822669,15.18,-3.65,-4.9
54.6266153,17.81,-5.26,-2.67
54.65178112,5.14,-1.8,-4
54.66016973,8.63,-2.9,-4.67
54.66016973,10.51,-4,-3.3
54.72727859,9.73,-0.24,-2.08
54.80277606,6.75,-0.78,-0.47
54.89505075,8.79,-2.16,-3.8
54.97893683,16,-4.59,-6.9
55.06282291,1.45,3.69,-5.61
55.17187482,5.3,-2.43,-3.22
55.23898368,10.28,-1.22,-3.33
55.30609254,8.67,-1.22,-2.86
55.37320141,7.73,-4.16,-1.77
55.4654761,6.9,-2.9,0.16
55.54936218,8.55,-1.88,-1.53
55.60808243,14.24,-3.06,-3.69
55.70035712,4.82,-2.67,-3.02
55.77585459,9.57,-1.45,-4.47
55.86812928,9.85,-4.2,-2.98
55.95201536,8.67,-1.33,-3.53
56.03590144,7.3,-0.31,-1.41
56.13656474,7.22,-1.37,-0.55
56.2036736,13.14,-2.28,-0.31
56.27917107,14.59,-1.06,-3.06
56.34627994,5.77,-2.63,-4.35
56.43016602,7.26,-0.9,-3.77
56.5140521,11.57,-1.77,-3.06
56.58116096,7.53,-2.67,-2.55
56.66504704,7.26,-3.22,-1.26
56.75732173,6.86,-3.26,-2.04
56.84959642,15.02,-3.26,-2.86
56.91670528,11.57,-6.55,-4.98
57.01736858,4.71,2.2,-2.47
57.10125466,13.65,-6.55,-4.71
57.15997491,8.87,-2.47,-1.8
57.22708378,7.92,-1.18,-2.9
57.32774707,6.71,-1.02,-0.82
57.41163315,9.85,-1.45,-3.06
57.49551923,14.28,-1.61,-2.98
57.55423949,9.96,2.39,-4.47
57.63812557,4.98,-2.75,-4.04
57.73040026,10.08,-1.37,-1.8
57.82267494,4.94,0,-4.16
57.89817242,9.69,-4.39,-1.69
57.97366989,7.65,-2.94,-1.53
58.04077875,6.86,-3.22,-2.82
58.17499648,12.12,-1.73,-3.53
58.25049395,9.41,-6.39,-4.12
58.30921421,5.02,1.18,-4.08
58.36793446,12.36,-3.96,-5.57
58.45182054,9.06,-2.55,-3.45
58.54409523,8.12,-0.9,-2.28
58.62798131,6.71,-1.8,-0.9
58.71186739,10.51,-0.78,-3.8
58.77897626,13.89,-3.77,-5.49
58.86286234,10.79,0.71,-4.94
58.93835981,5.1,-2.98,-4.47
59.02224589,10.71,-1.18,-2.86
59.15646362,6.75,-1.65,-2.43
59.22357248,8.75,-4,-1.73
59.27390413,7.14,-2.43,-0.67
59.33262438,9.18,-2.35,-2.98
59.41651046,12.32,-2.28,-2.28
59.50878515,8,-7.49,-4
59.60944845,5.14,1.96,-3.41
60.10437632,13.61,-6.86,-4.47
60.62447002,8.94,-1.8,-2.71
60.63285862,7.96,-1.22,-2.24
60.67480166,7.1,-1.18,-0.78
60.67480166,11.18,-1.49,-3.22
60.68319027,9.1,-3.18,-2.51
60.72513331,14.44,-3.18,-4.71
60.80063078,5.88,-4.39,-3.49
60.9180713,7.69,-0.04,-4.59
60.98518016,9.85,-3.41,-3.61
61.05228902,8.43,-2.31,-3.84
61.11939789,8.39,-0.75,-1.84
61.20328397,5.84,-1.77,-0.71
61.28717005,10.63,-2.71,-5.37
61.37944474,15.81,-4.9,-4.79
61.45494221,9.26,0.27,-3.26
61.53882829,3.57,-2.47,-4.35
61.60593715,13.57,-2.43,-3.26
61.68982323,7.18,-0.39,-3.69
61.78209792,7.37,-3.02,-2.59
61.88276122,6.86,-3.41,-0.82
61.94987008,8.71,-4.94,-3.73
62.01697894,12.79,-1.65,-2.24
62.10925363,8.51,-6.43,-4.31
62.1847511,4.9,1.61,-4.31
62.27702579,13.26,-6.51,-5.3
62.34413466,8.59,-2.31,-3.02
62.42802074,8.55,-1.29,-2.43
62.51190682,6.2,-1.33,-0.78
62.5957929,10.67,-1.45,-4.04
62.66290176,16.67,-4.04,-6.71
62.73839923,8.79,0.31,-3.33
62.84745114,4.2,-2,-4.39
62.91456,12.94,-2.86,-2.63
62.98166886,6.55,-1.02,-3.49
63.07394355,7.77,-3.14,-2.39
63.15782963,7.1,-2.63,-1.1
63.24171571,8.2,-3.33,-2.55
63.31721318,12.94,-3.88,-3.18
63.40109926,7.85,-5.69,-4.2
63.46820813,5.77,1.37,-4.86
63.56887142,11.53,-4.43,-4.67
63.6527575,8.71,-2.98,-3.8
63.71147776,7.96,-0.82,-2.63
63.8624727,6.83,-0.78,-1.49
63.92958157,10,-1.69,-3.14
63.98830182,12.91,-4.31,-2.16
64.05541069,11.92,1.49,-4.63
64.13929677,3.92,-2.35,-4
64.19801702,9.41,-0.86,-4.47
64.2819031,8.2,-1.14,-3.22
64.37417779,7.77,-2.79,-2.9
64.44967526,7.77,-3.14,-1.18
64.54194995,6.28,-3.61,-2.94
64.60067021,12.4,-1.57,-3.3
64.76005376,11.73,-5.06,-3.1
64.82716262,3.92,-0.63,-3.37
64.88588288,13.57,-3.88,-5.53
64.95299174,9.69,-3.37,-1.65
65.00332339,7.18,-1.77,-1.88
65.08720947,7.57,-2.04,-1.33
65.17109555,8.94,-2.55,-0.9
65.26337024,10.9,-2.16,-3.77
65.34725632,11.1,-3.57,-4.86
65.4311424,11.45,1.41,-4.75
65.48986266,5.77,-2.28,-5.81
65.57374874,11.49,-2.39,-3.92
66.09384243,7.65,-0.98,-3.1
66.09384243,7.45,-2.75,-2.35
66.12739686,8.55,-2.59,-1.77
66.12739686,9.61,-2.08,-1.65
66.13578547,11.49,-2.12,-2.43
66.1693399,8,-2.75,-3.65
66.21967155,8.43,-1.88,-4.75
66.31194624,8.87,-1.29,-4
66.40422093,9.92,-2.39,-3.37
66.48810701,9.22,-1.57,-3.22
66.57199309,8.94,-1.65,-3.06
66.67265638,9.02,-1.77,-3.65
66.73976525,9.77,-1.61,-3.88
66.80687411,9.41,-2.08,-2.67
66.87398298,9.06,-1.8,-3.26
66.96625766,9.3,-2.16,-4.12
67.05014374,9.3,-1.92,-3.84
67.11725261,9.77,-1.96,-3.96
67.20113869,9.3,-2.39,-3.57
67.27663616,9.14,-2.75,-3.33
67.38568806,9.34,-2.24,-3.37
67.44440832,9.41,-2.04,-3.33
67.51990579,9.3,-1.96,-3.37
67.6289577,9.41,-2,-3.33
67.69606656,9.38,-2.08,-3.3
67.76317542,9.22,-2.12,-3.14
67.86383872,9.34,-2.2,-3.33
67.9477248,9.34,-2.16,-3.37
68.00644506,9.3,-2.24,-3.33
68.09033114,9.3,-2.2,-3.49
68.17421722,9.26,-2.16,-3.3
68.2664919,9.34,-2.08,-3.3
68.35037798,9.26,-2.08,-3.41
68.40909824,9.38,-2.12,-3.41
68.50137293,9.3,-2.08,-3.57
68.58525901,9.26,-2.08,-3.49
68.66075648,9.34,-2.12,-3.49
68.79497421,9.26,-2.16,-3.49
68.85369446,9.3,-2.12,-3.57
68.90402611,9.22,-2.12,-3.45
68.97952358,9.3,-2.12,-3.45
69.07179827,9.45,-2.04,-3.41
69.15568435,9.3,-2.08,-3.57
69.23957043,9.1,-2.08,-3.3
69.29829069,9.34,-1.96,-3.41
