NAME:,matan w 3,,
EXPERIMENT TIME:,Thu Jun 01 12:00:05 GMT+03:00 2023,,
ACTIVITY TYPE:,Walking,,
COUNTS OF ACTUAL STEPS:,110,,
  , ,,
Time [sec],ACC X,ACC Y,ACC Z
0,9.3,-2.79,-3.45
0.008388608,9.1,-3.65,-3.49
0.016777216,8.83,-3.77,-3.61
0.016777216,8.59,-4,-4.12
0.025165824,7.92,-1.73,-1.73
0.092274688,9.18,-2.39,-1.77
0.226492416,12.83,-1.1,-3.14
0.301989888,11.65,-1.33,-5.1
0.369098752,3.65,-3.53,-5.96
0.436207616,10.08,-3.02,-5.45
0.50331648,7.3,-3.02,-5.1
0.578813952,8.16,-3.06,-3.33
0.662700032,7.77,-2.71,-2.39
0.746586112,9.06,-2.43,-1.45
0.8388608,11.34,-3.53,-2.2
0.92274688,13.57,-8.79,-5.41
0.981467136,4.59,0.08,-3.3
1.107296256,9.69,-3.88,-4.59
1.17440512,8.83,-4.55,-2.59
1.241513984,7.22,-1.61,-3.53
1.308622848,8.12,-2.2,-2.47
1.409286144,7.61,-1.45,-1.57
1.4680064,13.81,-3.77,-1.22
1.55189248,14.98,-2.63,-4.2
1.63577856,4.71,-1.57,-4.55
1.711276032,7.34,-2.86,-3.73
1.795162112,11.81,-2.82,-5.06
1.895825408,7.88,-3.18,-3.26
1.954545664,6.9,-3.1,-1.73
2.05520896,8.16,-3.02,-1.1
2.122317824,16.63,-4.63,-2.08
2.256535552,12.63,-8.16,-5.06
2.323644416,5.06,0.55,-2.59
2.373976064,9.85,-4.51,-3.8
2.466250752,9.3,-4.12,-3.69
2.541748224,9.45,-1.84,-3.57
2.60046848,6.04,-0.86,-1.29
2.692743168,7.85,-1.65,-2.86
2.776629248,14.28,-1.18,-1.69
2.860515328,12.55,0.51,-4.79
2.927624192,3.06,-2.47,-4.9
3.028287488,9.38,-1.37,-3.45
3.095396352,7.1,-0.67,-3.96
3.238002688,7.85,-4.16,-2.2
3.296722944,6.63,-3.84,-0.71
3.347054592,10.36,-3.18,-2.67
3.43932928,12.71,-4.39,-4.35
3.489660928,6.39,-3.84,-4.86
3.573547008,8.83,-0.08,-3.61
3.674210304,10.28,-6.67,-2.94
3.749707776,6.08,-1.18,-2.71
3.841982464,8.28,-2.82,-2.12
3.90070272,8.43,-2.04,-1.37
4.043309056,17.22,0.24,0.2
4.102029312,11.85,-0.51,-4.79
4.177526784,3.96,-2.67,-4.47
4.244635648,9.81,-1.18,-5.96
4.32013312,10.79,-2.12,-3.45
4.395630592,6.35,-3.18,-1.88
4.479516672,6.2,-4.16,0.12
4.555014144,6.98,-4.04,-3.45
4.647288832,12.24,-4.9,-4.98
4.731174912,7.3,-3.3,-3.8
4.815060992,8.98,0.16,-4.63
4.882169856,10.63,-6.24,-2.28
4.94927872,6.2,-0.71,-2.43
5.477761024,7.73,-2.31,-2.28
5.972688896,8.59,-1.77,-1.61
5.99785472,14.59,-2.08,0.63
6.006243328,14.24,-1.18,-4.82
6.014631936,5.14,-1.77,-4.79
6.023020544,4.94,1.18,-4.43
6.090129408,9.38,-6.12,-3.65
6.174015488,8.2,-2.12,-2.04
6.266290176,6.67,-1.49,-2.55
6.350176256,8.04,-2,-0.86
6.434062336,10.24,-2.16,-5.45
6.492782592,15.3,-5.92,-6.79
6.576668672,7.45,-0.78,-4.47
6.66894336,7.06,-3.3,-3.49
6.75282944,10.36,-0.63,-5.69
6.870269952,7.81,-3.69,-2.55
6.928990208,6.86,-3.77,-1.84
7.00448768,8.2,-2.59,-0.9
7.079985152,14.24,-2.31,-1.1
7.155482624,12.36,-8,-3.69
7.247757312,5.14,-0.08,-4.2
7.29808896,7.65,-2.04,-4.82
7.390363648,10.08,-6.86,-3.41
7.474249728,9.14,-2.16,-2.51
7.558135808,7.26,-1.02,-1.53
7.642021888,7.06,-1.96,0.35
7.709130752,13.77,-2.9,-2.79
7.818182656,17.3,-3.96,-7.96
7.876902912,7.45,0,-4.39
8.019509248,7.45,-2.9,-2.9
8.086618112,12.16,-3.33,-3.65
8.120172544,7.57,-3.57,-2.43
8.212447232,6.51,-3.02,-1.45
8.279556096,7.3,-3.61,-2.28
8.371830784,15.46,-3.37,-4.86
8.438939648,10.71,-7.26,-7.18
8.522825728,7.26,2.63,-4.98
8.606711808,10.83,-6.32,-4.16
8.698986496,7.53,-1.37,-3.1
8.774483968,9.26,-0.94,-3.1
8.908701696,7.53,-2.08,-0.31
8.97581056,12.08,-2.31,-3.3
9.042919424,17.42,-5.37,-9.41
9.084862464,5.81,-0.55,-3.92
9.177137152,7.73,-0.98,-4.35
9.261023232,12.59,-2.67,-4.43
9.361686528,6.32,-3.53,-2.94
9.420406784,6.59,-3.37,-1.18
9.512681472,8.24,-3.22,-1.84
9.588178944,13.53,-5.14,-1.22
9.6468992,12.75,-7.61,-4.63
9.789505536,6.12,0.47,-2.16
9.865003008,9.73,-6.71,-3.65
9.923723264,8.16,-1.73,-2.71
9.999220736,5.22,-1.57,-2.31
10.0663296,8.36,-1.8,-1.06
10.15860429,11.45,-1.61,-6.83
10.21732454,12.94,-7.61,-6.67
10.30121062,9.61,1.57,-6.75
10.3850967,6.24,-3.77,-4.79
10.46898278,12.4,-0.94,-4.04
10.55286886,5.61,-2.9,-2.71
10.65353216,6.16,-3.06,-2.28
10.72064102,8.9,-2.43,-2
10.78774989,16.36,-6.67,-1.69
10.93035622,12.28,-7.57,-4.2
10.98068787,6,-0.71,-4.2
11.45883853,9.06,-4.28,-3.77
11.9537664,9.45,-4.39,-2.28
11.98732083,6,-1.92,-2.55
11.99570944,9.02,-1.14,-3.49
12.02087526,10.28,-4.08,-1.45
12.07959552,12.32,-6.16,-4.82
12.1634816,7.77,-1.8,-4.98
12.24736768,8.71,-3.33,-4.98
12.33125376,10.04,-4.31,-3.3
12.41513984,6.94,-0.94,-1.96
12.49902592,7.45,-2.47,-1.65
12.59968922,7.81,-1.77,-3.73
12.66679808,16.4,-3.3,-7.73
12.73390694,10.04,-2.24,-4.31
12.87651328,4.31,-2.86,-5.1
12.9016791,10.2,-0.47,-4.28
12.98556518,7.81,-1.61,-3.33
13.06945126,6.24,-2.55,-2.31
13.15333734,7.49,-3.49,-0.78
13.22044621,6.98,-4.35,-1.8
13.30433229,11.53,-4.67,-4.71
13.38821837,6.98,-3.14,-5.81
13.48049306,7.65,-1.41,-4.12
13.54760192,9.1,-4.55,-2.59
13.61471078,6.79,-1.65,-2.35
13.76570573,8.32,-2.86,-2.43
13.83281459,7.65,-1.14,-2.9
13.86636902,14.24,-0.94,0.78
13.9502551,14.32,-2.75,-6.75
14.03414118,4.28,-1.8,-4.79
14.12641587,8.28,-2.82,-3.84
14.18513613,11.1,-1.65,-4.71
14.26902221,8.55,-3.14,-2.31
14.35290829,6.28,-3.41,-1.1
14.43679437,8.16,-2.98,-3.14
14.51229184,14.12,-4.94,-5.41
14.65489818,6.28,-4.94,-3.96
14.72200704,6.47,0,-4.47
14.7891159,8.59,-5.73,-4.12
14.83944755,9.02,-2.39,-3.57
14.93172224,7.57,-0.27,-2.16
15.00721971,6.51,-2.2,-0.86
15.09110579,13.93,-2.51,-1.33
15.18338048,15.89,-3.14,-5.3
15.23371213,6.24,-2.28,-3.41
15.32598682,6.79,-0.67,-4.59
15.4182615,12.51,-2.28,-4.47
15.48537037,6.59,-3.96,-2.59
15.6195881,6.9,-3.18,-0.98
15.68669696,8.16,-3.92,-3.45
15.75380582,14.16,-3.73,-1.77
15.82091469,9.34,-8,-5.53
15.91318938,4.98,1.88,-3.77
15.99707546,11.81,-8.98,-4.67
16.0474071,9.61,-2.59,-2.86
16.1480704,7.45,-1.22,-2.39
16.22356787,6.32,-1.33,-1.06
16.30745395,12.47,-3.33,-2.28
16.44167168,11.18,-4.59,-4.35
16.50039194,8.39,-0.16,-6.39
16.57588941,5.02,-1.77,-5.22
16.64299827,14.16,-3.26,-2.67
16.71010714,7.26,-1.96,-2.9
16.78560461,5.81,-4.04,-1.14
16.8778793,8.12,-4.16,-1.77
16.96176538,14.04,-4.79,-1.69
17.43991603,14.47,-6.86,-4.94
17.96839834,4.35,-0.31,-2.59
17.96839834,9.45,-5.61,-5.41
17.99356416,8.83,-3.84,-3.53
17.99356416,9.38,-1.14,-2.94
18.01034138,7.45,-3.61,-2.67
18.10261606,6.2,-2.63,-0.63
18.16972493,10.4,-2.63,-1.61
18.25361101,11.92,-3.53,-1.77
18.36266291,6.94,-3.77,-4.94
18.42138317,8.79,0.47,-4.9
18.49688064,9.1,-7.37,-1.88
18.5556009,7.26,-2.35,-3.14
18.6646528,7.53,-0.9,-2.31
18.73176166,8.04,-1.45,-1.29
18.81564774,13.3,-2.55,0.24
18.88275661,14.87,-1.57,-5.1
18.96664269,4,-1.96,-3.49
19.05891738,8.36,-2.08,-5.84
19.14280346,10.87,-2.04,-3.53
19.23507814,7.92,-2.43,-2.75
19.30218701,5.57,-3.96,-1.02
19.36929587,8,-3.14,-3.22
19.51190221,13.34,-3.22,-2.86
19.57062246,9.81,-5.1,-4.35
19.63773133,6.12,0.78,-4.31
19.69645158,10.71,-4.9,-4.43
19.78033766,8.2,-3.26,-3.53
19.86422374,8.32,-0.63,-2.71
19.95649843,6.75,-1.14,-0.43
20.04038451,12.2,-2.63,-4.79
20.12427059,17.81,-4,-8.39
20.18299085,7.06,-0.12,-4.16
20.28365414,6.35,-3.1,-4.59
20.35076301,12.71,-3.1,-3.02
20.41787187,7.53,-2.24,-2.71
20.5520896,5.88,-3.8,-1.69
20.59403264,8.32,-2.28,-1.65
20.67791872,18.32,-6.75,-3.3
20.7618048,12.36,-6.2,-3.3
20.82891366,2.94,-0.31,-4.16
20.92957696,11.85,-4.47,-5.49
21.01346304,9.14,-4.47,-3.41
21.0721833,7.53,-1.49,-2.9
21.16445798,6.83,-0.67,-1.29
21.29867571,9.45,-1.8,-3.84
21.36578458,14.87,-6.28,-6.12
21.43289344,10,-1.57,-3.33
21.51677952,3.37,-2.75,-3.33
21.55872256,9.14,-0.39,-4.94
21.65099725,8.63,-2.28,-3.41
21.73488333,7.1,-3.88,-2.67
21.81876941,6.75,-2.94,-0.94
21.88587827,7.14,-2.47,-2.71
21.96976435,13.57,-3.65,-4.2
22.05365043,5.84,-3.84,-4.08
22.18786816,7.49,-0.12,-2.98
22.24658842,10.12,-5.22,-4.16
22.31369728,8.12,-2.51,-3.53
22.38080614,7.96,-0.86,-2.24
22.44791501,6.2,-1.84,-0.9
22.53180109,14,-2.43,0.12
22.62407578,15.77,-3.02,-4.75
22.70796186,4.82,-2.12,-4.63
22.79184794,8.47,-2.47,-3.26
22.8589568,9.34,-1.69,-4.79
22.94284288,9.26,-3.69,-2.51
23.42938214,7.02,-3.49,-1.18
23.93269862,7.65,-3.73,-3.14
23.95786445,12.67,-4.08,-2.24
23.96625306,11.96,-6.43,-5.02
23.96625306,4,0.47,-3.53
24.0081961,5.37,-3.22,-3.3
24.07530496,13.45,-1.53,-3.96
24.15919104,6.98,-3.77,-2.55
24.29340877,6.43,-3.8,-1.57
24.36051763,8.51,-1.92,-1.06
24.41084928,16.48,-5.57,-2.86
24.49473536,12.36,-7.22,-4
24.55345562,2.94,0.31,-3.88
24.65411891,12.83,-6.2,-5.33
24.73800499,9.26,-3.53,-3.3
24.79672525,7.57,-1.49,-2.98
24.90577715,6.71,-0.86,-0.94
24.96449741,10.43,-1.92,-3.8
25.03999488,13.53,-6.32,-4.24
25.17421261,10,-0.71,-4.24
25.24971008,2.79,-2.16,-3.41
25.31681894,12.08,-2.31,-5.06
25.35876198,8.32,-2.28,-3.45
25.45103667,7.41,-3.65,-2.28
25.55169997,7.26,-2.82,-0.78
25.61042022,8.12,-3.14,-2.35
25.70269491,13.45,-5.41,-4.47
25.77819238,7.14,-5.33,-5.02
25.87046707,5.92,1.26,-3.88
25.92918733,10.04,-7.06,-2.9
26.07179366,8.71,-2.16,-3.96
26.13890253,7.41,-0.86,-2.35
26.20601139,6.63,-1.69,-0.59
26.27312026,12.36,-1.33,-4.59
26.34022912,15.22,-6,-6.43
26.44089242,7.18,-0.16,-4.94
26.51638989,7.81,-2.16,-3.77
26.60027597,10.79,-2.24,-5.1
26.66738483,9.14,-3.53,-2.79
26.75965952,7.53,-3.57,-1.73
26.85193421,7.85,-1.06,-0.94
26.9525975,16.28,-2.08,-2.63
27.01970637,14,-7.53,-4.94
27.08681523,3.22,-1.18,-4.71
27.1539241,10.59,-3.14,-5.41
27.28814182,9.14,-5.33,-3.14
27.33008486,7.69,-1.8,-3.26
27.40558234,7.49,-0.78,-1.61
27.48946842,7.02,-2.08,-1.41
27.5733545,13.65,-2.59,-0.47
27.64885197,15.1,-1.22,-5.18
27.73273805,4.2,-2.08,-4
27.81662413,7.73,-0.94,-4.79
27.91728742,11.34,-2.63,-3.96
27.98439629,7.69,-2.9,-3.3
28.05150515,6.75,-3.49,-1.69
28.12700262,8.39,-3.1,-1.88
28.19411149,15.53,-4.28,-4
28.28638618,10.63,-7.53,-4.86
28.37027226,5.61,1.69,-5.22
28.45415834,9.65,-5.3,-4.31
28.56321024,7.92,-3.26,-3.53
28.6219305,8.55,-1.49,-2.63
28.70581658,6.75,-1.1,-1.02
28.76453683,9.81,-1.57,-6
28.87358874,15.65,-5.3,-7.02
28.95747482,9.02,-1.26,-4.31
29.41884826,3.92,-3.3,-4.39
29.91377613,12.63,-2.55,-3.92
29.94733056,6.35,-2.55,-3.33
29.95571917,7.14,-3.8,-2.16
29.96410778,8.12,-3.06,-0.75
29.9892736,7.22,-1.14,-0.43
30.07315968,13.3,-3.61,-2
30.15704576,19.93,-4.04,-8
30.24932045,5.14,0.31,-4.55
30.32481792,10.36,-2.51,-4.39
30.39192678,11.06,-2.43,-3.57
30.49259008,7.45,-2.63,-2.79
30.57647616,7.1,-4.2,-0.59
30.63519642,5.69,-2.51,-3.14
30.7274711,13.38,-3.88,-2.94
30.79457997,8.12,-5.88,-5.1
30.9287977,4.75,0.86,-4
30.99590656,10.47,-6.2,-4.82
31.06301542,9.02,-2.28,-3.73
31.13012429,7.85,-0.9,-2.35
31.20562176,6.43,-1.65,-0.75
31.28950784,12.75,-3.18,-3.41
31.37339392,17.34,-3.96,-5.22
31.46566861,5.26,-0.94,-4.59
31.54955469,8,-2.16,-3.92
31.60827494,13.81,-2.9,-5.06
31.74249267,7.73,-2.51,-2.94
31.80960154,6.55,-3.53,-1.49
31.8767104,8.24,-2.16,-0.75
31.94381926,13.89,-2.55,-2.04
32.01092813,13.14,-7.18,-3.88
32.09481421,3.65,-1.14,-5.45
32.1870889,12.43,-3.96,-5.65
32.27097498,8.2,-4.98,-3.02
32.35486106,7.41,-1.22,-3.14
32.43035853,7.34,-0.55,-1.92
32.51424461,9.22,-2.28,-2.98
32.59813069,14.08,-1.37,-2.51
32.69879398,12.32,-0.2,-4.63
32.77429146,1.77,-2.35,-5.45
32.84140032,9.65,-3.1,-2.79
32.90850918,6,-0.98,-4.31
33.04272691,8.71,-3.88,-2.82
33.10983578,8.12,-4.28,-1.14
33.15177882,6.39,-3.8,-2.59
33.2356649,14.71,-3.06,-5.61
33.31955098,3.65,-4.9,-4.59
33.40343706,11.14,-0.24,-4.2
33.46215731,8.79,-5.41,-2.43
33.54604339,7.96,-2.55,-3.41
33.68026112,7.18,-0.86,-1.92
33.73898138,6.9,-1.88,-0.86
33.81447885,14.47,-1.88,-1.92
33.88158771,16.16,-1.37,-5.88
34.01580544,3.45,-2.79,-4.9
34.0829143,7.37,-1.8,-4.47
34.10808013,12.47,-2,-4.43
34.19196621,8.2,-3.92,-3.22
34.2842409,7.06,-3.33,-1.37
34.37651558,7.41,-3.41,-2.47
34.43523584,13.61,-5.49,-2.51
34.51912192,13.38,-7.85,-6.71
34.62817382,4.51,1.29,-3.49
34.69528269,11.65,-7.77,-3.3
34.76239155,7.34,-1.92,-3.37
34.89660928,7.49,-1.61,-3.1
34.93016371,8.51,-1.02,-1.41
35.90324224,9.41,-3.61,-4.2
36.39817011,14.95,-5.81,-5.14
36.89309798,8.67,-0.31,-5.73
36.90148659,5.96,-2.98,-5.26
37.41319168,12.04,-2.47,-3.92
37.89134234,10.04,0.47,-4.31
38.38627021,7.41,-2.63,-3.49
38.40304742,7.34,-3.8,-2.31
38.41143603,6.2,-3.61,-2.94
38.47015629,6.16,-3.26,-0.98
38.49532211,8.08,-3.8,-2.82
38.50371072,10.24,-2.94,-0.04
38.52048794,9.02,-8.55,-2.51
38.52887654,6,-0.98,-2.59
38.57920819,8.79,-1.57,-3.18
38.66309427,8.51,-1.26,-0.75
38.75536896,8.9,-3.37,-4.12
38.82247782,14.87,-8.24,-4.08
38.9063639,8.83,-0.51,-5.49
38.99863859,4.82,-1.84,-5.1
39.05735885,12.63,-1.92,-5.02
39.14124493,7.02,-3.06,-3.18
39.22513101,7.49,-3.18,-2.08
39.30901709,8.24,-2.71,-1.57
39.41806899,12.36,-2.43,-2.08
39.48517786,13.89,-5.84,-5.45
39.55228672,6.59,-0.08,-3.53
39.61939558,9.45,-5.61,-4.43
39.72005888,8.32,-3.26,-3.37
39.78716774,5.92,-0.86,-2.63
39.87105382,8.51,-2.16,-2.04
39.9549399,8.51,-2.39,-3.22
40.04721459,13.53,-1.1,-0.86
40.10593485,11.77,-1.88,-4.08
40.18982093,4.43,-1.88,-3.65
40.27370701,8.83,-2.59,-5.22
40.34920448,11.26,-1.8,-3.14
40.48342221,6.75,-2.55,-2.9
40.55053107,6.35,-3.8,-0.75
40.62602854,8.51,-3.61,-3.41
40.70152602,11.69,-4.9,-1.1
40.75185766,10.98,-10,-5.22
40.84413235,4.39,-0.39,-3.06
40.93640704,10,-5.57,-3.65
41.02029312,8.63,-3.1,-2.43
41.07901338,6.86,-1.06,-2.59
41.16289946,8.79,-2.24,-1.57
41.24678554,8.51,-1.73,-3.3
41.32228301,13.53,-2.98,-2.79
41.45650074,11.3,-0.67,-4.82
41.5236096,5.37,-3.88,-3.96
41.59071846,6.79,-1.53,-3.45
41.65782733,10.51,-2,-3.73
41.74171341,6.94,-4.2,-2.39
41.80882227,7.06,-3.18,-0.51
41.89270835,6,-3.73,-2.35
41.97659443,14.16,-5.06,-3.49
42.06048051,6.32,-2.82,-3.8
42.13597798,9.73,-1.65,-2.98
42.21986406,8.79,-4.24,-1.65
42.29536154,7.73,-1.1,-2.24
42.42957926,7.34,-1.96,-1.88
42.49668813,8.08,-2.28,-2.08
42.56379699,14.16,-1.18,-0.31
42.63929446,14,-2.94,-3.69
42.69801472,5.1,-2.55,-4.82
42.7819008,9.89,-2.47,-3.61
42.87417549,9.06,-1.65,-3.61
42.94967296,6.35,-2.55,-3.02
43.04194765,7.92,-3.88,-1.69
43.12583373,7.22,-4.16,-3.06
43.18455398,13.81,-3.1,-2.98
43.31877171,7.69,-4.51,-4.43
43.38588058,8.24,0.04,-3.8
43.88080845,9.1,-5.92,-3.3
44.37573632,6.55,-1.14,-2.98
44.41767936,8.98,-1.96,-2.24
44.42606797,7.53,-1.69,-1.57
44.42606797,14.32,-2.16,-2.04
44.48478822,10.94,-9.49,-6
44.5686743,5.84,1.02,-3.73
44.65256038,10.28,-7.81,-3.33
44.74483507,6.94,-2.35,-2.47
44.82033254,8.08,-1.84,-2.35
44.88744141,7.96,-1.14,-0.86
44.97132749,10.4,-2.94,-5.49
45.05521357,16.16,-5.84,-6.04
45.13909965,9.1,-1.18,-4.71
45.26492877,5.92,-3.53,-2.98
45.34042624,9.61,-1.61,-5.57
45.3991465,9.53,-3.02,-3.02
45.44947814,7.57,-2.86,-2.63
45.54175283,6.9,-2.51,-0.55
45.62563891,5.57,-3.57,-3.61
45.70952499,12.32,-4.16,-2.98
45.79341107,5.41,-3.57,-4.82
45.88568576,7.06,-0.24,-3.22
45.94440602,10.94,-8.9,-4.71
46.0282921,9.34,-1.77,-3.69
46.10378957,7.3,-1.22,-2.47
46.2380073,6.98,-1.77,-1.37
46.30511616,11.96,-4.79,-1.18
46.35544781,14.75,-2.51,-3.26
46.4477225,3.77,-3.18,-4.16
46.52321997,8.94,-0.67,-3.18
46.59032883,9.26,-1.84,-3.8
46.67421491,7.14,-3.69,-2.75
46.75810099,7.34,-2.75,-2.04
46.84198707,8.67,-4.47,-3.41
46.93426176,14.08,-3.69,-3.49
46.99298202,8.12,-8,-4.86
47.13558835,8.71,1.53,-4.82
47.20269722,8.08,-7.61,-0.63
47.26980608,12.16,-2.39,-3.57
47.33691494,6.9,-2.24,-0.86
47.3956352,6.39,-1.69,-0.98
47.48790989,12.08,-2.31,-5.3
47.58018458,15.93,-1.53,-6.59
47.65568205,9.81,-0.12,-4.98
47.75634534,4.94,-4.04,-3.45
47.8150656,10.9,-3.53,-2.47
47.89056307,8,-1.26,-2.79
48.01639219,6.12,-2.63,-1.84
48.08350106,8,-3.73,-0.63
48.15060992,15.57,-1.06,-0.43
48.20933018,12.98,-7.49,-3.65
48.30160486,4.24,-1.14,-3.73
48.38549094,10.32,-2.98,-4.9
48.46937702,10.08,-4.98,-2.28
48.53648589,8.16,-1.77,-2.9
48.62037197,7.18,-0.12,-1.57
48.70425805,7.77,-1.61,-3.14
48.78814413,18.59,-4.04,-7.41
48.87203021,9.34,-0.75,-4.08
48.9726935,4.43,-3.45,-4.43
49.04819098,10.55,-1.33,-3.96
49.11529984,7.3,-2.59,-3.06
49.1824087,7.41,-3.77,-2.12
49.26629478,7.49,-2.86,-0.51
49.35856947,11.77,-1.26,-0.47
49.86188595,12.67,-6.24,-4.51
50.36520243,5.33,-0.71,-4.24
50.39875686,7.3,-3.49,-4.35
50.39875686,10.47,-4.47,-3.53
50.40714547,8.47,-1.88,-3.14
50.4323113,9.45,-4.2,-2.67
50.48264294,7.18,-4.16,-0.59
50.56652902,7.45,-4.35,-3.53
50.6420265,13.45,-2.59,-4.04
50.71752397,8.87,-5.69,-5.06
50.80141005,6.75,0.67,-3.41
50.91046195,9.02,-7.65,-3.06
50.98595942,6.28,-1.41,-3.41
51.04467968,9.45,-1.37,-2.79
51.15373158,8.36,-1.77,-1.1
51.21245184,14.28,-1.45,1.18
51.29633792,13.06,-2.28,-4.28
51.380224,4.08,-2.51,-5.45
51.46411008,9.06,-1.41,-3.84
51.54799616,8.87,-1.49,-4.08
51.61510502,8.67,-3.33,-2.75
51.6989911,6.43,-3.73,-0.67
51.77448858,7.49,-3.92,-3.69
51.91709491,12.36,-2.24,-3.02
52.05131264,9.61,-5.14,-5.45
52.10164429,6.55,0.43,-3.53
52.12681011,9.81,-6.9,-3.3
52.17714176,7.34,-1.41,-2.75
52.26102784,7.57,-2.04,-2.67
52.35330253,8.04,-1.61,-0.9
52.4288,12.47,-3.1,-2.82
52.52107469,15.18,-3.61,-4.75
52.57979494,5.49,-1.65,-4.51
52.67206963,7.81,-2.16,-4.2
52.75595571,12.04,-1.26,-4.86
52.82306458,7.88,-3.33,-3.37
52.9572823,6.79,-3.69,-1.53
53.02439117,8.71,-3.33,-1.92
53.07472282,12.87,-3.14,-1.18
53.1669975,13.61,-8.28,-5.02
53.25088358,5.26,0.75,-3.77
53.31799245,6.32,-5.1,-2.94
53.40187853,7.81,-4.35,-3.06
53.48576461,9.65,-1.77,-2.75
53.56965069,7.65,-1.37,-1.69
53.62837094,8.24,-0.71,-4.59
53.75420006,15.46,-5.22,-5.65
53.82130893,10.9,-0.59,-4.55
53.8968064,2.79,-3.61,-4.75
53.95552666,10.28,-1.84,-4.51
54.05618995,8.39,-2,-3.96
54.12329882,8.39,-3.26,-2.47
54.19879629,6.94,-3.49,-0.9
54.29107098,9.02,-2.59,-2.16
54.38334566,13.53,-4.75,-5.3
54.44206592,6.43,-3.22,-4.28
54.54272922,6.28,-0.75,-4.12
54.61822669,9.61,-4.43,-4.04
54.71888998,7.61,-2.24,-2.71
54.78599885,7.65,-1.14,-2.2
54.85310771,6.08,-1.33,-2.24
54.9453824,13.89,-3.37,0.67
55.02926848,19.26,-4.24,-7.02
55.09637734,6.94,-0.98,-4.75
55.17187482,6.86,-2.43,-3.96
55.2641495,12.51,-2.86,-4.59
55.34803558,8.71,-2.86,-3.14
55.85135206,7.1,-3.02,-1.69
56.37144576,8.08,-3.02,-1.1
56.37983437,18.36,-6.98,-2.79
56.38822298,11.96,-8.43,-6.39
56.4133888,5.37,0.35,-3.3
56.42177741,4.67,-4.31,-3.41
56.48888627,14.98,-0.43,-3.77
56.58116096,5.49,-3.65,-2.67
56.65665843,7.02,-3.33,-1.96
56.71537869,8.12,-2.94,-0.59
56.85798502,12.51,-1.22,-0.35
56.89992806,14.04,-5.57,-5.57
56.97542554,3.53,-1.41,-3.8
57.05931162,11.22,-4.9,-4.86
57.12642048,9.1,-3.49,-3.14
57.21030656,7.61,-1.49,-3.92
57.29419264,7.22,-0.63,-1.92
57.37807872,8.71,-1.06,-2.28
57.47035341,13.42,-2.98,-1.57
57.52907366,12.12,-1.14,-5.3
57.60457114,3.18,-2.79,-4.31
57.73878886,7.77,-1.18,-5.65
57.80589773,10.2,-1.69,-3.84
57.86461798,7.3,-2.67,-2.79
57.93172685,5.88,-3.53,-0.94
58.01561293,8.59,-4.28,-3.49
58.10788762,13.34,-3.61,-3.92
58.1917737,8.79,-5.81,-4.79
58.27565978,5.53,0.55,-3.61
58.33438003,12.75,-6.67,-4.86
58.41826611,8.51,-2.94,-2.2
58.55248384,8.12,-2.63,-2.71
58.6112041,5.96,-0.94,-0.82
58.67831296,10.94,-1.88,-4.71
58.74542182,15.61,-6.47,-6.35
58.83769651,9.06,-0.24,-4.86
58.91319398,4.9,-1.49,-5.14
58.99708006,12.87,-4.51,-4
59.06418893,7.57,-1.18,-3.45
59.14807501,7.22,-2.51,-2.28
59.23196109,7.57,-3.8,-0.82
59.32423578,9.18,-2.82,-1.92
59.40812186,13.34,-7.02,-5.33
59.51717376,2.9,-1.65,-4.59
59.59267123,12.55,-4.47,-3.84
59.6597801,8.36,-3.33,-3.06
59.72688896,7.57,-2.79,-2.82
59.80238643,7.45,-0.2,-2.16
59.8778839,8.08,-1.06,-3.1
59.96176998,14.59,-5.37,-5.06
60.04565606,11.38,-0.43,-4.47
60.12954214,2.63,-2.31,-4.16
60.22181683,10.04,-3.41,-4.98
60.28053709,8.08,-2,-3.84
60.36442317,8.28,-2.39,-2.59
60.46508646,6.79,-3.77,-0.98
60.53219533,8.08,-2.79,-2.12
60.59930419,14.79,-4.82,-4.31
60.69157888,6.79,-4.79,-4.94
60.78385357,7.45,-0.51,-4.51
60.84257382,8.71,-5.53,-3.06
60.9264599,7.57,-2.31,-2.86
61.01034598,7.81,-1.1,-2.2
61.09423206,7.45,-1.69,-0.9
61.17811814,14,-3.18,-2.31
61.27039283,17.53,-3.77,-5.26
61.35427891,5.18,-0.9,-4.12
62.33574605,7.88,-2.43,-4.47
62.82228531,10.98,-2.75,-3.49
62.83067392,7.92,-2.04,-2.9
63.32560179,6.2,-3.96,-1.18
63.34237901,7.53,-3.26,-2
63.82891827,6.98,-3.37,-1.84
63.83730688,8.16,-2.63,-1.18
64.32384614,18.59,-5.14,-2.71
64.34901197,12.2,-8.2,-4.71
64.83555123,4,-2.59,-4.31
64.86071706,11.53,-2.31,-4.31
64.86910566,7.53,-4.08,-2.16
64.9110487,15.61,-4.28,-6.63
64.97815757,10.59,-0.39,-4.28
65.07043226,2.9,-2.71,-4.31
65.13754112,10.63,-1.96,-4.51
65.26337024,9.34,-1.14,-3.8
65.3304791,7.37,-3.84,-2.31
65.39758797,6.28,-3.45,-0.51
65.45630822,9.22,-2.79,-2.47
65.5401943,14.12,-4.98,-4.71
65.63246899,4.98,-2.51,-2.94
65.70796646,9.85,-4.67,-3.33
65.80024115,8.2,-3.92,-2.67
65.88412723,9.06,-1.06,-2.75
65.94284749,7.61,-0.86,-1.22
66.02673357,8.75,-0.98,-5.41
66.11900826,17.69,-5.1,-8.32
66.18611712,9.57,-0.94,-3.92
66.32872346,5.88,-3.33,-4
66.39583232,9.89,-2.28,-4.55
66.43777536,8.32,-1.73,-3.3
66.52166144,7.3,-4.24,-2.2
66.61393613,7.53,-3.33,-1.33
66.69782221,15.93,-2.98,-1.37
66.77331968,12.59,-8.2,-4.71
66.84042854,4.47,-0.51,-3.69
66.92431462,10.63,-5.02,-4.28
67.0082007,9.18,-3.41,-2.55
67.09208678,8.36,-2.31,-3.14
67.15919565,6.59,-0.71,-1.45
67.30180198,8.2,-1.61,-3.1
67.36891085,14.83,-3.57,-6.79
67.4192425,10.63,-1.41,-5.96
67.50312858,4.82,-2.82,-4.35
67.57023744,10.43,-1.57,-3.37
67.65412352,7.22,-2.08,-3.22
67.7380096,6.86,-3.92,-1.26
67.82189568,6.83,-1.57,-1.96
67.90578176,11.53,-3.14,-1.06
67.98966784,12.59,-6.63,-4
68.0483881,4.75,-0.67,-3.3
68.19099443,7.96,-2.67,-5.57
68.2581033,9.02,-4.28,-2.47
68.32521216,8.47,-2.2,-3.18
68.39232102,6.55,-0.75,-1.29
68.45942989,8.9,-1.45,-4
68.54331597,17.3,-6.04,-8.94
68.62720205,9.69,-0.12,-3.8
68.71108813,4.55,-3.73,-4.63
68.7865856,9.92,-1.88,-3.45
68.8872489,6.79,-1.8,-4.16
68.94596915,8.47,-3.92,-2.31
69.02146662,8.04,-3.37,-0.78
69.16407296,15.81,-2.63,-1.49
69.23118182,11.69,-6.2,-3.53
69.29829069,5.49,-2.08,-3.77
69.36539955,7.61,-2.63,-3.96
69.44089702,10.75,-5.14,-4.12
69.50800589,9.69,-2.51,-3.37
69.59189197,6.59,-1.33,-2.08
69.67577805,7.69,-1.1,-3.06
69.76805274,14.36,-0.35,-0.86
69.85193882,12.87,-0.94,-4.67
70.32170086,4.51,-3.02,-4.47
70.80824013,8.16,-2.31,-3.41
70.85018317,9.02,-0.82,-3.96
70.85857178,8.36,-4.35,-2.31
70.8837376,6.55,-2.86,-0.82
70.90051482,7.26,-1.96,-2.75
71.00117811,15.06,-0.31,-2.35
71.06828698,12.47,-1.96,-4.9
71.13539584,3.77,-3.3,-5.02
71.21089331,9.89,-1.77,-3.77
71.303168,7.45,-1.1,-3.69
71.39544269,7.02,-3.37,-3.33
71.46255155,8,-4.35,-1.22
71.54643763,6.94,-4.39,-2.71
71.63871232,13.3,-3.18,-3.69
71.71420979,8.71,-6.47,-6.32
71.79809587,7.22,1.69,-4
71.85681613,9.34,-6.55,-4.24
71.96586803,8.98,-2.12,-3.3
72.0329769,9.69,-1.45,-3.22
72.10008576,6.35,-1.37,-1.02
72.19236045,11.69,-2.35,-4.63
72.26785792,17.42,-3.96,-7.57
72.36013261,7.65,-0.78,-4.67
72.44401869,6.86,-2.86,-3.22
72.52790477,10.24,-1.84,-4.98
72.59501363,9.61,-2.82,-2.98
72.6705111,7.57,-3.33,-2.16
72.75439718,8.16,-3.02,-1.33
72.83828326,17.34,-4.79,-2.51
72.91378074,12.87,-8.75,-5.73
73.05638707,4.75,1.22,-3.77
73.12349594,10.51,-5.77,-4
73.16543898,8.16,-3.49,-3.18
73.25771366,8.98,-2.16,-3.06
73.31643392,7.06,-1.41,-1.53
73.40032,8.59,-2.12,-4.47
73.48420608,13.49,-4.94,-6.59
73.56809216,10.71,-0.55,-6.71
73.64358963,5.81,-2.59,-4
73.72747571,9.1,-0.55,-4
73.81136179,7.96,-1.88,-3.8
73.88685926,7.92,-4.24,-2
74.02107699,7.69,-2.63,-0.78
